# HR-1024i Wave Cal File
# Calibration data, S/N: 5142040 Date: 2/26/2015
# Line 1 below contains the calibration date in mmDDyy format
# Line 2 through 1025 contains the 1024-entry wave cal table values (nm)
#
022415
337.4
338.9
340.4
342.0
343.5
345.0
346.5
348.0
349.6
351.1
352.6
354.1
355.6
357.1
358.6
360.1
361.6
363.1
364.6
366.1
367.6
369.1
370.6
372.1
373.6
375.1
376.6
378.1
379.6
381.1
382.6
384.0
385.5
387.0
388.5
390.0
391.4
392.9
394.4
395.9
397.3
398.8
400.3
401.7
403.2
404.7
406.1
407.6
409.1
410.5
412.0
413.4
414.9
416.4
417.8
419.3
420.7
422.2
423.6
425.1
426.5
428.0
429.4
430.9
432.3
433.7
435.2
436.6
438.1
439.5
440.9
442.4
443.8
445.2
446.7
448.1
449.5
451.0
452.4
453.9
455.3
456.7
458.1
459.6
461.0
462.4
463.8
465.3
466.7
468.1
469.5
470.9
472.4
473.8
475.2
476.6
478.0
479.5
480.9
482.3
483.7
485.1
486.5
487.9
489.3
490.8
492.2
493.6
495.0
496.4
497.8
499.2
500.6
502.0
503.4
504.8
506.2
507.6
509.0
510.4
511.8
513.2
514.6
516.0
517.4
518.8
520.2
521.6
523.0
524.4
525.8
527.2
528.6
530.0
531.4
532.8
534.2
535.6
537.0
538.4
539.8
541.2
542.5
543.9
545.3
546.7
548.1
549.5
550.9
552.3
553.7
555.0
556.4
557.8
559.2
560.6
562.0
563.3
564.7
566.1
567.5
568.9
570.3
571.7
573.0
574.4
575.8
577.2
578.5
579.9
581.3
582.7
584.1
585.4
586.8
588.2
589.6
591.0
592.3
593.7
595.1
596.5
597.8
599.2
600.6
602.0
603.3
604.7
606.1
607.4
608.8
610.2
611.5
612.9
614.3
615.7
617.0
618.4
619.8
621.1
622.5
623.9
625.2
626.6
628.0
629.3
630.7
632.1
633.4
634.8
636.2
637.5
638.9
640.2
641.6
643.0
644.3
645.7
647.0
648.4
649.8
651.1
652.5
653.8
655.2
656.5
657.9
659.3
660.6
662.0
663.3
664.7
666.0
667.4
668.7
670.1
671.4
672.8
674.1
675.5
676.8
678.2
679.5
680.9
682.2
683.6
684.9
686.2
687.6
688.9
690.3
691.6
693.0
694.3
695.7
697.0
698.3
699.7
701.0
702.3
703.7
705.0
706.3
707.7
709.0
710.3
711.7
713.0
714.3
715.7
717.0
718.3
719.7
721.0
722.3
723.6
725.0
726.3
727.6
728.9
730.2
731.6
732.9
734.2
735.5
736.8
738.2
739.5
740.8
742.1
743.4
744.7
746.0
747.3
748.7
750.0
751.3
752.6
753.9
755.2
756.5
757.8
759.1
760.4
761.7
763.0
764.3
765.6
766.9
768.2
769.5
770.8
772.1
773.4
774.7
775.9
777.2
778.5
779.8
781.1
782.4
783.7
784.9
786.2
787.5
788.8
790.0
791.3
792.6
793.9
795.2
796.4
797.7
799.0
800.2
801.5
802.8
804.0
805.3
806.6
807.8
809.1
810.3
811.6
812.9
814.1
815.4
816.6
817.9
819.1
820.4
821.6
822.9
824.1
825.4
826.6
827.9
829.1
830.3
831.6
832.8
834.1
835.3
836.5
837.8
839.0
840.2
841.5
842.7
843.9
845.1
846.4
847.6
848.8
850.0
851.3
852.5
853.7
854.9
856.1
857.3
858.6
859.8
861.0
862.2
863.4
864.6
865.8
867.0
868.2
869.4
870.6
871.8
873.0
874.2
875.4
876.6
877.8
879.0
880.2
881.4
882.6
883.8
885.0
886.2
887.4
888.5
889.7
890.9
892.1
893.3
894.5
895.6
896.8
898.0
899.2
900.4
901.5
902.7
903.9
905.1
906.2
907.4
908.6
909.7
910.9
912.1
913.2
914.4
915.6
916.8
917.9
919.1
920.2
921.4
922.6
923.7
924.9
926.1
927.2
928.4
929.5
930.7
931.9
933.0
934.2
935.3
936.5
937.7
938.8
940.0
941.1
942.3
943.4
944.6
945.7
946.9
948.1
949.2
950.4
951.5
952.7
953.8
955.0
956.2
957.3
958.5
959.6
960.8
961.9
963.1
964.2
965.4
966.6
967.7
968.9
970.0
971.2
972.4
973.5
974.7
975.9
977.0
978.2
979.4
980.5
981.7
982.9
984.0
985.2
986.4
987.6
988.8
989.9
991.1
992.3
993.5
994.7
995.8
997.0
998.2
999.4
1000.6
1001.8
1003.0
1004.2
1005.4
1006.6
1007.8
1009.0
1010.2
1011.4
974.6
978.2
981.8
985.5
989.1
992.8
996.4
1000.1
1003.7
1007.4
1011.0
1014.7
1018.3
1022.0
1025.6
1029.3
1033.0
1036.6
1040.3
1044.0
1047.7
1051.3
1055.0
1058.7
1062.4
1066.1
1069.7
1073.4
1077.1
1080.8
1084.5
1088.2
1091.9
1095.6
1099.3
1103.0
1106.7
1110.4
1114.1
1117.8
1121.5
1125.2
1128.9
1132.6
1136.3
1140.0
1143.8
1147.5
1151.2
1154.9
1158.6
1162.3
1166.1
1169.8
1173.5
1177.2
1181.0
1184.7
1188.4
1192.2
1195.9
1199.6
1203.3
1207.1
1210.8
1214.6
1218.3
1222.0
1225.8
1229.5
1233.2
1237.0
1240.7
1244.4
1248.2
1251.9
1255.7
1259.4
1263.2
1266.9
1270.6
1274.4
1278.1
1281.9
1285.6
1289.3
1293.1
1296.8
1300.6
1304.3
1308.1
1311.8
1315.6
1319.3
1323.1
1326.8
1330.5
1334.3
1338.0
1341.8
1345.5
1349.3
1353.0
1356.8
1360.5
1364.2
1368.0
1371.7
1375.5
1379.2
1382.9
1386.7
1390.4
1394.2
1397.9
1401.7
1405.4
1409.1
1412.9
1416.6
1420.3
1424.1
1427.8
1431.5
1435.3
1439.0
1442.7
1446.5
1450.2
1453.9
1457.7
1461.4
1465.1
1468.8
1472.6
1476.3
1480.0
1483.7
1487.4
1491.2
1494.9
1498.6
1502.3
1506.0
1509.7
1513.4
1517.1
1520.8
1524.6
1528.3
1532.0
1535.7
1539.4
1543.1
1546.8
1550.4
1554.1
1557.8
1561.5
1565.2
1568.9
1572.6
1576.3
1579.9
1583.6
1587.3
1591.0
1594.7
1598.3
1602.0
1605.7
1609.3
1613.0
1616.7
1620.3
1624.0
1627.6
1631.3
1634.9
1638.6
1642.2
1645.9
1649.5
1653.2
1656.8
1660.4
1664.1
1667.7
1671.3
1674.9
1678.6
1682.2
1685.8
1689.4
1693.0
1696.6
1700.2
1703.9
1707.5
1711.1
1714.7
1718.2
1721.8
1725.4
1729.0
1732.6
1736.2
1739.7
1743.3
1746.9
1750.4
1754.0
1757.6
1761.1
1764.7
1768.2
1771.8
1775.3
1778.9
1782.4
1785.9
1789.5
1793.0
1796.5
1800.0
1803.6
1807.1
1810.6
1814.1
1817.6
1821.1
1824.6
1828.1
1831.6
1835.1
1838.5
1842.0
1845.5
1849.0
1852.4
1855.9
1859.3
1862.8
1866.3
1869.7
1873.2
1876.6
1880.0
1883.4
1886.9
1890.3
1893.7
1897.1
1900.5
1903.9
1907.3
1913.5
1915.9
1918.4
1920.9
1923.3
1925.8
1928.3
1930.7
1933.2
1935.7
1938.1
1940.6
1943.0
1945.5
1947.9
1950.4
1952.8
1955.3
1957.8
1960.2
1962.7
1965.1
1967.5
1970.0
1972.4
1974.9
1977.3
1979.8
1982.2
1984.7
1987.1
1989.5
1992.0
1994.4
1996.8
1999.3
2001.7
2004.2
2006.6
2009.0
2011.5
2013.9
2016.3
2018.8
2021.2
2023.6
2026.0
2028.5
2030.9
2033.3
2035.7
2038.2
2040.6
2043.0
2045.4
2047.8
2050.2
2052.7
2055.1
2057.5
2059.9
2062.3
2064.7
2067.1
2069.6
2072.0
2074.4
2076.8
2079.2
2081.6
2084.0
2086.4
2088.8
2091.2
2093.6
2096.0
2098.4
2100.8
2103.2
2105.6
2108.0
2110.4
2112.8
2115.2
2117.6
2120.0
2122.4
2124.7
2127.1
2129.5
2131.9
2134.3
2136.7
2139.1
2141.4
2143.8
2146.2
2148.6
2151.0
2153.3
2155.7
2158.1
2160.5
2162.8
2165.2
2167.6
2170.0
2172.3
2174.7
2177.1
2179.4
2181.8
2184.2
2186.5
2188.9
2191.3
2193.6
2196.0
2198.4
2200.7
2203.1
2205.4
2207.8
2210.1
2212.5
2214.9
2217.2
2219.6
2221.9
2224.3
2226.6
2229.0
2231.3
2233.7
2236.0
2238.4
2240.7
2243.0
2245.4
2247.7
2250.1
2252.4
2254.8
2257.1
2259.4
2261.8
2264.1
2266.4
2268.8
2271.1
2273.4
2275.8
2278.1
2280.4
2282.8
2285.1
2287.4
2289.7
2292.1
2294.4
2296.7
2299.0
2301.3
2303.7
2306.0
2308.3
2310.6
2312.9
2315.2
2317.6
2319.9
2322.2
2324.5
2326.8
2329.1
2331.4
2333.7
2336.1
2338.4
2340.7
2343.0
2345.3
2347.6
2349.9
2352.2
2354.5
2356.8
2359.1
2361.4
2363.7
2366.0
2368.3
2370.6
2372.9
2375.1
2377.4
2379.7
2382.0
2384.3
2386.6
2388.9
2391.2
2393.4
2395.7
2398.0
2400.3
2402.6
2404.9
2407.1
2409.4
2411.7
2414.0
2416.2
2418.5
2420.8
2423.1
2425.3
2427.6
2429.9
2432.1
2434.4
2436.7
2438.9
2441.2
2443.5
2445.7
2448.0
2450.3
2452.5
2454.8
2457.1
2459.3
2461.6
2463.8
2466.1
2468.3
2470.6
2472.8
2475.1
2477.3
2479.6
2481.8
2484.1
2486.3
2488.6
2490.8
2493.1
2495.3
2497.6
2499.8
2502.0
2504.3
2506.5
2508.8
2511.0
2513.2
