# HR-1024i Wave Cal File
# Calibration data, S/N: 6142042 Date: 7/15/2015
# Line 1 below contains the calibration date in mmDDyy format
# Line 2 through 1025 contains the 1024-entry wave cal table values (nm)
#
071315
339.1
340.6
342.1
343.6
345.1
346.6
348.1
349.6
351.1
352.6
354.1
355.6
357.1
358.6
360.1
361.6
363.0
364.5
366.0
367.5
369.0
370.5
372.0
373.4
374.9
376.4
377.9
379.4
380.8
382.3
383.8
385.2
386.7
388.2
389.6
391.1
392.6
394.0
395.5
397.0
398.5
399.9
401.4
402.8
404.3
405.8
407.2
408.7
410.1
411.6
413.0
414.5
415.9
417.4
418.8
420.3
421.7
423.2
424.6
426.1
427.5
429.0
430.4
431.9
433.3
434.8
436.2
437.6
439.1
440.5
442.0
443.4
444.8
446.3
447.7
449.1
450.6
452.0
453.5
454.9
456.3
457.7
459.2
460.6
462.0
463.5
464.9
466.3
467.8
469.2
470.6
472.0
473.5
474.9
476.3
477.7
479.1
480.6
482.0
483.4
484.8
486.2
487.7
489.1
490.5
491.9
493.3
494.8
496.2
497.6
499.0
500.4
501.8
503.2
504.6
506.1
507.5
508.9
510.3
511.7
513.1
514.5
515.9
517.3
518.8
520.2
521.6
523.0
524.4
525.8
527.2
528.6
530.0
531.4
532.8
534.2
535.6
537.0
538.4
539.8
541.2
542.6
544.0
545.4
546.8
548.2
549.6
551.0
552.4
553.8
555.2
556.6
558.0
559.3
560.7
562.1
563.5
564.9
566.3
567.7
569.1
570.5
571.9
573.2
574.6
576.0
577.4
578.8
580.2
581.6
583.0
584.3
585.7
587.1
588.5
589.9
591.2
592.6
594.0
595.4
596.8
598.2
599.5
600.9
602.3
603.7
605.0
606.4
607.8
609.2
610.5
611.9
613.3
614.7
616.0
617.4
618.8
620.2
621.5
622.9
624.3
625.6
627.0
628.4
629.7
631.1
632.5
633.8
635.2
636.5
637.9
639.3
640.6
642.0
643.4
644.7
646.1
647.5
648.8
650.2
651.5
652.9
654.2
655.6
657.0
658.3
659.7
661.0
662.4
663.7
665.1
666.4
667.8
669.1
670.5
671.8
673.2
674.5
675.8
677.2
678.5
679.9
681.2
682.6
683.9
685.3
686.6
687.9
689.3
690.6
692.0
693.3
694.6
696.0
697.3
698.6
700.0
701.3
702.6
704.0
705.3
706.6
708.0
709.3
710.6
711.9
713.3
714.6
715.9
717.2
718.6
719.9
721.2
722.5
723.8
725.2
726.5
727.8
729.1
730.4
731.8
733.1
734.4
735.7
737.0
738.3
739.6
741.0
742.3
743.6
744.9
746.2
747.5
748.8
750.1
751.4
752.7
754.0
755.3
756.6
757.9
759.2
760.5
761.8
763.1
764.4
765.7
767.0
768.3
769.5
770.8
772.1
773.4
774.7
776.0
777.3
778.6
779.8
781.1
782.4
783.7
785.0
786.2
787.5
788.8
790.1
791.4
792.6
793.9
795.2
796.5
797.7
799.0
800.3
801.5
802.8
804.1
805.3
806.6
807.8
809.1
810.4
811.6
812.9
814.2
815.4
816.7
817.9
819.2
820.4
821.7
822.9
824.2
825.4
826.7
827.9
829.2
830.4
831.7
832.9
834.1
835.4
836.6
837.9
839.1
840.3
841.6
842.8
844.0
845.3
846.5
847.7
849.0
850.2
851.4
852.7
853.9
855.1
856.3
857.5
858.8
860.0
861.2
862.4
863.7
864.9
866.1
867.3
868.5
869.7
870.9
872.1
873.3
874.6
875.8
877.0
878.2
879.4
880.6
881.8
883.0
884.2
885.4
886.6
887.8
889.0
890.2
891.4
892.6
893.8
895.0
896.2
897.3
898.5
899.7
900.9
902.1
903.3
904.5
905.7
906.8
908.0
909.2
910.4
911.6
912.7
913.9
915.1
916.3
917.5
918.6
919.8
921.0
922.1
923.3
924.5
925.7
926.8
928.0
929.2
930.3
931.5
932.7
933.8
935.0
936.1
937.3
938.5
939.6
940.8
941.9
943.1
944.2
945.4
946.6
947.7
948.9
950.0
951.2
952.3
953.5
954.6
955.8
956.9
958.1
959.2
960.4
961.5
962.7
963.8
965.0
966.1
967.3
968.4
969.5
970.7
971.8
973.0
974.1
975.3
976.4
977.5
978.7
979.8
981.0
982.1
983.2
984.4
985.5
986.7
987.8
988.9
990.1
991.2
992.3
993.5
994.6
995.8
996.9
998.0
999.2
1000.3
1001.4
1002.6
1003.7
1004.8
1006.0
1007.1
1008.2
1009.4
1010.5
1011.6
972.9
976.8
980.6
984.4
988.2
992.0
995.8
999.7
1003.5
1007.3
1011.1
1014.9
1018.7
1022.5
1026.3
1030.2
1034.0
1037.8
1041.6
1045.4
1049.2
1053.0
1056.8
1060.6
1064.4
1068.2
1072.0
1075.8
1079.6
1083.4
1087.2
1091.0
1094.8
1098.6
1102.4
1106.2
1109.9
1113.7
1117.5
1121.3
1125.1
1128.9
1132.7
1136.4
1140.2
1144.0
1147.8
1151.6
1155.4
1159.1
1162.9
1166.7
1170.5
1174.2
1178.0
1181.8
1185.6
1189.3
1193.1
1196.9
1200.7
1204.4
1208.2
1212.0
1215.7
1219.5
1223.2
1227.0
1230.8
1234.5
1238.3
1242.1
1245.8
1249.6
1253.3
1257.1
1260.8
1264.6
1268.3
1272.1
1275.8
1279.6
1283.3
1287.1
1290.8
1294.5
1298.3
1302.0
1305.8
1309.5
1313.2
1317.0
1320.7
1324.4
1328.2
1331.9
1335.6
1339.4
1343.1
1346.8
1350.6
1354.3
1358.0
1361.7
1365.4
1369.2
1372.9
1376.6
1380.3
1384.0
1387.7
1391.4
1395.2
1398.9
1402.6
1406.3
1410.0
1413.7
1417.4
1421.1
1424.8
1428.5
1432.2
1435.9
1439.6
1443.3
1447.0
1450.7
1454.4
1458.1
1461.8
1465.4
1469.1
1472.8
1476.5
1480.2
1483.9
1487.5
1491.2
1494.9
1498.6
1502.2
1505.9
1509.6
1513.2
1516.9
1520.6
1524.2
1527.9
1531.6
1535.2
1538.9
1542.6
1546.2
1549.9
1553.5
1557.2
1560.8
1564.5
1568.1
1571.8
1575.4
1579.1
1582.7
1586.3
1590.0
1593.6
1597.3
1600.9
1604.5
1608.2
1611.8
1615.4
1619.1
1622.7
1626.3
1629.9
1633.6
1637.2
1640.8
1644.4
1648.0
1651.6
1655.2
1658.8
1662.5
1666.1
1669.7
1673.3
1676.9
1680.5
1684.1
1687.7
1691.3
1694.9
1698.5
1702.1
1705.7
1709.2
1712.8
1716.4
1720.0
1723.6
1727.2
1730.7
1734.3
1737.9
1741.5
1745.0
1748.6
1752.2
1755.7
1759.3
1762.9
1766.4
1770.0
1773.5
1777.1
1780.7
1784.2
1787.8
1791.3
1794.9
1798.4
1801.9
1805.5
1809.0
1812.6
1816.1
1819.6
1823.2
1826.7
1830.2
1833.8
1837.3
1840.8
1844.3
1847.9
1851.4
1854.9
1858.4
1861.9
1865.4
1868.9
1872.5
1876.0
1879.5
1883.0
1886.5
1890.0
1893.5
1897.0
1900.5
1904.0
1907.4
1910.9
1898.1
1900.8
1903.6
1906.3
1909.0
1911.8
1914.5
1917.2
1920.0
1922.7
1925.4
1928.2
1930.9
1933.6
1936.3
1939.0
1941.7
1944.4
1947.1
1949.8
1952.5
1955.2
1957.9
1960.6
1963.3
1966.0
1968.7
1971.3
1974.0
1976.7
1979.4
1982.0
1984.7
1987.4
1990.0
1992.7
1995.3
1998.0
2000.6
2003.3
2005.9
2008.6
2011.2
2013.8
2016.5
2019.1
2021.7
2024.4
2027.0
2029.6
2032.2
2034.8
2037.5
2040.1
2042.7
2045.3
2047.9
2050.5
2053.1
2055.7
2058.3
2060.9
2063.4
2066.0
2068.6
2071.2
2073.8
2076.3
2078.9
2081.5
2084.0
2086.6
2089.1
2091.7
2094.3
2096.8
2099.4
2101.9
2104.4
2107.0
2109.5
2112.1
2114.6
2117.1
2119.7
2122.2
2124.7
2127.2
2129.7
2132.3
2134.8
2137.3
2139.8
2142.3
2144.8
2147.3
2149.8
2152.3
2154.8
2157.2
2159.7
2162.2
2164.7
2167.2
2169.6
2172.1
2174.6
2177.1
2179.5
2182.0
2184.4
2186.9
2189.4
2191.8
2194.2
2196.7
2199.1
2201.6
2204.0
2206.4
2208.9
2211.3
2213.7
2216.1
2218.6
2221.0
2223.4
2225.8
2228.2
2230.6
2233.1
2235.4
2237.9
2240.2
2242.6
2245.0
2247.4
2249.8
2252.2
2254.6
2256.9
2259.3
2261.7
2264.1
2266.4
2268.8
2271.2
2273.5
2275.9
2278.2
2280.6
2282.9
2285.3
2287.6
2290.0
2292.3
2294.6
2297.0
2299.3
2301.6
2303.9
2306.3
2308.6
2310.9
2313.2
2315.5
2317.9
2320.2
2322.5
2324.8
2327.1
2329.4
2331.6
2333.9
2336.2
2338.5
2340.8
2343.1
2345.4
2347.6
2349.9
2352.2
2354.4
2356.7
2359.0
2361.2
2363.5
2365.7
2368.0
2370.2
2372.5
2374.7
2376.9
2379.2
2381.4
2383.6
2385.9
2388.1
2390.3
2392.6
2394.8
2397.0
2399.2
2401.4
2403.6
2405.8
2408.0
2410.2
2412.4
2414.6
2416.8
2419.0
2421.2
2423.4
2425.6
2427.7
2429.9
2432.1
2434.2
2436.4
2438.6
2440.7
2442.9
2445.1
2447.2
2449.4
2451.5
2453.7
2455.8
2457.9
2460.1
2462.2
2464.4
2466.5
2468.6
2470.7
2472.9
2475.0
2477.1
2479.2
2481.3
2483.4
2485.5
2487.6
2489.7
2491.8
2493.9
2496.0
2498.1
2500.2
2502.3
2504.4
2506.5
2508.5
2510.6
2512.7
